Time [s]	LSPR Response [pm]	Extinction [arb.u]
0,00	0	0,44
0,99	1,33	0,44
1,99	2,72	0,44
3,00	2,94	0,44
4,00	3,67	0,44
5,01	4,48	0,44
6,01	5,09	0,43
7,01	5,22	0,44
8,02	5,92	0,43
9,02	6,1	0,43
10,02	7,12	0,43
11,02	7,89	0,44
12,03	8,35	0,44
13,03	8,08	0,44
14,03	8,18	0,44
15,04	8,79	0,43
16,04	8,71	0,43
17,04	9,26	0,43
18,04	10,55	0,43
19,05	12,01	0,43
20,05	12,86	0,43
21,06	13,16	0,43
22,06	14,11	0,43
23,06	15,21	0,43
24,07	15,2	0,43
25,07	15,65	0,43
26,07	16,87	0,43
27,07	17,67	0,43
28,08	18,77	0,43
29,08	19,89	0,43
30,09	19,17	0,43
31,09	18,86	0,43
32,09	19,3	0,43
33,09	18,53	0,43
34,10	18,92	0,43
35,10	20,64	0,43
36,11	21,93	0,43
37,11	22,12	0,43
38,11	23,17	0,43
39,11	23,22	0,43
40,12	22,74	0,43
41,12	23,23	0,43
42,12	23,64	0,43
43,12	23,02	0,43
44,12	22,95	0,43
45,12	23,33	0,43
46,13	23,99	0,43
47,13	24,16	0,43
48,13	25,1	0,43
49,14	26,24	0,43
50,14	27,1	0,43
51,14	27,86	0,43
52,15	28,56	0,43
53,15	29,19	0,43
54,15	29,01	0,43
55,16	28,5	0,43
56,16	27,4	0,43
57,16	27,37	0,43
58,16	26,63	0,43
59,16	26,74	0,43
60,16	27,71	0,43
61,16	28,72	0,43
62,17	28,75	0,43
63,17	29,77	0,43
64,17	30,6	0,43
65,17	31,52	0,43
66,17	30,85	0,43
67,19	30,73	0,43
68,19	30,55	0,43
69,20	30,46	0,43
70,20	30,28	0,43
71,20	31,4	0,43
72,20	32,45	0,43
73,20	33,96	0,43
74,21	36	0,43
75,21	36,67	0,43
76,22	37,68	0,43
77,22	38,21	0,43
78,23	38,29	0,43
79,23	38,18	0,43
80,23	39,03	0,43
81,22	39,49	0,43
82,22	40,43	0,43
83,21	41,6	0,43
84,21	41,05	0,43
85,20	40,52	0,43
86,20	35,22	0,44
87,19	27,23	0,44
88,20	20,55	0,44
89,19	14,9	0,44
90,19	6,62	0,44
91,18	1,29	0,44
92,18	-10,87	0,44
93,17	-27,71	0,44
94,18	-47,17	0,44
95,19	-76,56	0,44
96,19	-110,09	0,44
97,19	-138,1	0,44
98,20	-175,32	0,44
99,20	-217,5	0,45
100,21	-251,56	0,45
101,21	-289,94	0,45
102,22	-331,51	0,45
103,22	-363,95	0,45
104,23	-396,23	0,45
105,23	-432,8	0,45
106,23	-462,97	0,45
107,24	-493,38	0,45
108,24	-527,58	0,46
109,25	-552,96	0,46
110,25	-570,77	0,46
111,25	-580,24	0,45
112,26	-579,03	0,45
113,26	-568	0,45
114,26	-555,66	0,45
115,25	-537,07	0,45
116,25	-514,22	0,45
117,25	-489,12	0,45
118,24	-460,79	0,45
119,23	-421,95	0,45
120,22	-381,12	0,45
121,20	-340,33	0,45
122,21	-291,9	0,45
123,20	-244,59	0,45
124,18	-204,52	0,45
125,17	-160,3	0,44
126,16	-120,22	0,44
127,16	-89,89	0,44
128,15	-55,8	0,44
129,13	-25,99	0,44
130,12	-4,34	0,44
131,11	17,46	0,44
132,11	37,92	0,44
133,10	50,51	0,44
134,09	64,44	0,44
135,09	76,84	0,44
136,08	86,16	0,44
137,08	96,02	0,44
138,07	106,51	0,44
139,06	115,23	0,44
140,06	124,86	0,44
141,05	134,07	0,44
142,05	142,68	0,44
143,06	152,01	0,44
144,04	160,84	0,44
145,04	167,55	0,44
146,03	175,43	0,44
147,03	181,46	0,44
148,02	186,06	0,44
149,01	191,41	0,44
150,00	197,66	0,44
150,99	202,09	0,44
151,97	208,15	0,44
152,98	212,67	0,44
153,96	217,03	0,44
154,95	221,23	0,44
155,94	224,94	0,44
156,93	227,33	0,44
157,93	230,5	0,44
158,92	233,22	0,44
159,91	234,72	0,44
160,90	237,32	0,44
161,88	240,62	0,44
162,89	243,79	0,44
163,87	246,37	0,44
164,86	249,89	0,44
165,85	252,67	0,44
166,84	254,8	0,44
167,84	257,16	0,44
168,83	259,11	0,44
169,81	261,34	0,44
170,80	263,98	0,44
171,79	265,75	0,44
172,79	267,13	0,44
173,78	268,04	0,44
174,77	268,79	0,44
175,76	268,99	0,44
176,74	269,09	0,44
177,74	268,95	0,44
178,73	269,59	0,44
179,72	269,38	0,44
180,71	269,22	0,44
181,69	269,66	0,44
182,70	270,54	0,44
183,69	270,88	0,44
184,67	271,88	0,44
185,66	273,35	0,44
186,65	274,83	0,44
187,65	276,03	0,44
188,63	277,73	0,44
189,62	279,51	0,44
190,61	280,21	0,44
191,60	280,73	0,44
192,60	281,19	0,44
193,59	281,87	0,44
194,57	281,15	0,44
195,56	281,24	0,44
196,55	281,28	0,44
197,55	281,73	0,44
198,54	281,26	0,44
199,53	282,58	0,44
200,51	283,44	0,44
201,50	284,03	0,44
202,50	284,71	0,44
203,49	285,61	0,44
204,48	286,14	0,44
205,47	286,38	0,44
206,46	286,29	0,44
207,46	286,54	0,44
208,45	287,09	0,44
209,44	287,37	0,44
210,42	288,42	0,44
211,41	290,21	0,44
212,41	290,85	0,44
213,40	291,64	0,44
214,39	292,47	0,44
215,38	292,49	0,44
216,36	292,55	0,44
217,36	293,15	0,44
218,35	293,74	0,44
219,34	294,28	0,44
220,33	294,28	0,44
221,31	294,42	0,44
222,32	295,09	0,44
223,31	295,68	0,44
224,29	295,9	0,44
225,28	297,19	0,44
226,27	297,3	0,44
227,27	297,34	0,44
228,26	297,61	0,44
229,25	297,48	0,44
230,23	297,31	0,44
231,22	297,52	0,44
232,22	297,25	0,44
233,21	296,93	0,44
234,20	296,96	0,44
235,19	297,3	0,44
236,18	298,21	0,44
237,18	299,96	0,44
238,17	301,63	0,44
239,15	303,2	0,44
240,16	303,27	0,44
241,14	303,68	0,44
242,15	303,87	0,44
243,13	303,9	0,44
244,12	304	0,44
245,11	304,74	0,44
246,10	305,14	0,44
247,10	305,01	0,44
248,09	303,83	0,44
249,07	303,79	0,44
250,06	303,73	0,44
251,05	303,65	0,44
252,05	303,39	0,44
253,04	302,96	0,44
254,03	302,78	0,44
255,02	302,22	0,44
256,00	301,73	0,44
257,01	302,15	0,44
258,00	302,84	0,44
258,98	302,66	0,44
259,97	303,64	0,44
260,96	303,45	0,44
261,94	302,91	0,44
262,95	302,99	0,44
263,94	302,7	0,44
264,92	301,36	0,44
265,91	300,72	0,44
266,90	300,59	0,44
267,90	300,7	0,44
268,89	300,37	0,44
269,88	301,61	0,44
270,87	302,42	0,44
271,86	302,58	0,44
272,86	302,52	0,44
273,85	302,85	0,44
274,84	302,89	0,44
275,82	303,6	0,44
276,81	303,67	0,44
277,82	303,4	0,44
278,81	302,96	0,44
279,79	302,82	0,44
280,78	302,86	0,44
281,77	302,7	0,44
282,77	303,2	0,44
283,76	303,81	0,44
284,75	303,7	0,44
285,73	302,82	0,44
286,72	302,28	0,44
287,72	301,8	0,44
288,71	302,45	0,44
289,70	302,67	0,44
290,69	302,02	0,44
291,67	302,54	0,44
292,68	302,9	0,44
293,66	301,74	0,44
294,65	301,55	0,44
295,64	302,7	0,44
296,62	302,47	0,44
297,61	302,94	0,44
298,60	303,43	0,44
299,59	303,8	0,44
300,57	303,63	0,44
301,56	301,71	0,44
302,56	300,01	0,44
303,55	297,57	0,44
304,54	294,75	0,44
305,53	294,16	0,44
306,51	297,01	0,44
307,50	298,96	0,44
308,50	302,31	0,44
309,48	305,66	0,44
310,47	307,59	0,44
311,46	308,25	0,44
312,46	308,86	0,44
313,45	308,92	0,44
314,44	308,98	0,44
315,43	309,28	0,44
316,41	308,63	0,44
317,40	308,88	0,44
318,39	309,07	0,44
319,37	309,26	0,44
320,36	308,83	0,44
321,35	309,39	0,44
322,36	308,93	0,44
323,34	308,83	0,44
324,33	309,52	0,44
325,32	309,6	0,44
326,31	309,67	0,44
327,30	310,09	0,44
328,29	310,36	0,44
329,27	309,58	0,44
330,26	309,95	0,44
331,25	309,79	0,44
332,25	308,94	0,44
333,24	308,32	0,44
334,23	305,61	0,44
335,22	302,27	0,44
336,20	298,85	0,44
337,19	291,86	0,44
338,18	276,31	0,44
339,17	246,08	0,44
340,15	190,89	0,44
341,14	102,64	0,44
342,14	-24,16	0,44
343,13	-197,34	0,45
344,12	-417,82	0,45
345,11	-680,67	0,45
346,09	-975,67	0,46
347,10	-1285,28	0,46
348,11	-1589,7	0,47
349,11	-1871,87	0,47
350,12	-2124,17	0,47
351,12	-2343,03	0,47
352,13	-2534,32	0,48
353,13	-2702,65	0,48
354,13	-2852,05	0,48
355,14	-2985,75	0,48
356,14	-3106,37	0,48
357,13	-3214,07	0,48
358,13	-3310,24	0,48
359,14	-3396,71	0,48
360,12	-3472,03	0,48
361,11	-3539,05	0,48
362,11	-3598,4	0,48
363,10	-3651,75	0,48
364,09	-3699,31	0,48
365,09	-3743	0,49
366,08	-3782,15	0,49
367,07	-3818,23	0,49
368,06	-3850,04	0,49
369,06	-3879,15	0,49
370,05	-3904,93	0,49
371,04	-3928,42	0,49
372,04	-3949,79	0,49
373,03	-3969,79	0,49
374,01	-3988,39	0,49
375,00	-4006,45	0,49
375,99	-4022,75	0,49
376,99	-4037,47	0,49
377,99	-4051,37	0,49
378,97	-4064,07	0,49
379,96	-4074,98	0,49
380,95	-4086,11	0,49
381,94	-4097,09	0,49
382,94	-4106,88	0,49
383,93	-4115,58	0,49
384,91	-4124,74	0,49
385,90	-4132,74	0,49
386,89	-4140,07	0,49
387,87	-4147,64	0,49
388,86	-4154,9	0,49
389,85	-4161,63	0,49
390,84	-4168,37	0,49
391,82	-4174,18	0,49
392,83	-4178,7	0,49
393,81	-4183,84	0,49
394,80	-4188,74	0,49
395,79	-4193,14	0,49
396,77	-4198,16	0,49
397,77	-4203,06	0,49
398,75	-4207,44	0,49
399,76	-4212,38	0,49
400,75	-4216,78	0,49
401,73	-4220,36	0,49
402,74	-4224,17	0,49
403,73	-4228,09	0,49
404,71	-4230,94	0,49
405,70	-4233,69	0,49
406,69	-4236,98	0,49
407,67	-4240,27	0,49
408,66	-4242,94	0,49
409,65	-4245,39	0,49
410,64	-4248,61	0,49
411,62	-4251,2	0,49
412,63	-4253,67	0,49
413,61	-4255,6	0,49
414,60	-4258,15	0,49
415,59	-4260,33	0,49
416,58	-4262,88	0,49
417,57	-4264,92	0,49
418,55	-4268,65	0,49
419,54	-4271,47	0,49
420,53	-4273,81	0,49
421,52	-4277,27	0,49
422,52	-4280,32	0,49
423,51	-4282,75	0,49
424,50	-4285,76	0,49
425,48	-4287,12	0,49
426,48	-4286,78	0,49
427,47	-4287,35	0,49
428,46	-4287,73	0,49
429,44	-4287,9	0,49
430,43	-4289,31	0,49
431,42	-4282,57	0,52
432,42	-4276,45	0,51
433,42	-4274,12	0,52
434,41	-4283,22	0,49
435,39	-4291,72	0,49
436,38	-4307,94	0,49
437,37	-4323,74	0,49
438,36	-4335,38	0,49
439,35	-4337,32	0,49
440,33	-4340,71	0,49
441,32	-4345,65	0,49
442,32	-4350,18	0,49
443,31	-4353,76	0,49
444,30	-4354,53	0,49
445,28	-4353,85	0,49
446,27	-4351,42	0,49
447,26	-4348,15	0,49
448,25	-4342,43	0,49
449,24	-4336,57	0,49
450,23	-4301,88	0,54
451,22	-4293,11	0,49
452,23	-4285,56	0,49
453,22	-4280,29	0,49
454,21	-4265,25	0,49
455,20	-4271,03	0,49
456,19	-4246,83	0,49
457,17	-4215,39	0,49
458,16	-4172,68	0,48
459,15	-4127,34	0,48
460,14	-4077,26	0,48
461,12	-4014,51	0,48
462,12	-3937,14	0,48
463,11	-3852,93	0,48
464,10	-3764,27	0,48
465,09	-3671,8	0,48
466,08	-3577,32	0,48
467,07	-3485,65	0,48
468,06	-3394,98	0,48
469,04	-3302,61	0,47
470,03	-3211,3	0,47
471,02	-3122,14	0,47
472,02	-3036,89	0,47
473,01	-2956,32	0,47
474,00	-2883	0,47
474,98	-2813,52	0,47
475,97	-2749,5	0,47
476,96	-2688,9	0,47
477,95	-2629,21	0,47
478,93	-2569,26	0,47
479,92	-2508,68	0,46
480,91	-2445,8	0,46
481,90	-2380,82	0,46
482,90	-2313,98	0,46
483,89	-2244,73	0,46
484,88	-2177,13	0,46
485,87	-2111,24	0,46
486,86	-2047,2	0,46
487,85	-1988	0,46
488,84	-1935,37	0,46
489,82	-1886,02	0,46
490,81	-1842,26	0,46
491,80	-1804,14	0,46
492,80	-1769,99	0,45
493,79	-1739,68	0,45
494,78	-1713,7	0,45
495,77	-1690,95	0,45
496,75	-1670,41	0,45
497,74	-1652,13	0,45
498,73	-1634,75	0,45
499,72	-1617,44	0,45
500,71	-1599,87	0,45
501,69	-1581,43	0,45
502,70	-1561,99	0,45
503,69	-1541,9	0,45
504,67	-1520,88	0,45
505,66	-1499,36	0,45
506,65	-1478,01	0,45
507,64	-1456,04	0,45
508,62	-1433,76	0,45
509,61	-1412,03	0,45
510,60	-1389,5	0,45
511,59	-1367,12	0,45
512,59	-1345,81	0,45
513,58	-1325,22	0,45
514,57	-1304,52	0,45
515,55	-1285,03	0,45
516,54	-1265,95	0,45
517,53	-1246,84	0,45
518,52	-1228,79	0,45
519,51	-1210,27	0,45
520,50	-1192,25	0,45
521,49	-1174,3	0,45
522,49	-1157,17	0,45
523,48	-1139,14	0,45
524,46	-1122,79	0,45
525,45	-1106,64	0,45
526,44	-1091,38	0,45
527,43	-1076,15	0,45
528,42	-1061,13	0,45
529,40	-1046,01	0,45
530,39	-1030,93	0,44
531,38	-1015,4	0,44
532,38	-1000,29	0,44
533,37	-986,9	0,44
534,36	-973,62	0,44
535,35	-960,64	0,44
536,34	-949,05	0,44
537,33	-937,72	0,44
538,32	-924,55	0,44
539,31	-912,61	0,44
540,30	-900,99	0,44
541,28	-889,66	0,44
542,29	-878,53	0,44
543,27	-868,82	0,44
544,26	-858,75	0,44
545,25	-849,51	0,44
546,24	-839,5	0,44
547,23	-829,71	0,44
548,21	-819,78	0,44
549,20	-810,96	0,44
550,19	-801,52	0,44
551,18	-791,86	0,44
552,18	-783,06	0,44
553,17	-774,64	0,44
554,16	-765,67	0,44
555,14	-757,26	0,44
556,13	-750,16	0,44
557,12	-741,88	0,44
558,11	-734,2	0,44
559,10	-726,57	0,44
560,08	-718,84	0,44
561,07	-712,02	0,44
562,07	-706,69	0,44
563,06	-700,71	0,44
564,05	-694,61	0,44
565,03	-688,49	0,44
566,02	-681,27	0,44
567,01	-672,93	0,44
568,00	-665,56	0,44
568,99	-657,9	0,44
569,97	-651,7	0,44
570,96	-645,07	0,44
571,95	-639,05	0,44
572,94	-632,83	0,44
573,92	-626,85	0,44
574,91	-620,31	0,44
575,90	-614,56	0,44
576,89	-608,39	0,44
577,87	-602,4	0,44
578,86	-597,19	0,44
579,85	-591,41	0,44
580,84	-585,38	0,44
581,83	-579,63	0,44
582,83	-573,96	0,44
583,82	-567,74	0,44
584,80	-562,08	0,44
585,79	-556,07	0,44
586,78	-550,62	0,44
587,77	-544,91	0,44
588,75	-539,66	0,44
589,74	-534,75	0,44
590,73	-530,6	0,44
591,72	-525,25	0,44
592,71	-519,95	0,44
593,69	-514,96	0,44
594,68	-509,6	0,44
595,67	-504,02	0,44
596,66	-499,23	0,44
597,64	-494,34	0,44
598,63	-488,93	0,44
599,62	-484,32	0,44
600,61	-480,55	0,44
601,60	-476,47	0,44
602,60	-472,79	0,44
603,59	-469,39	0,44
604,58	-465,27	0,44
605,56	-461,01	0,44
606,55	-456,2	0,44
607,54	-451,46	0,44
608,53	-446,33	0,44
609,52	-441,5	0,44
610,50	-436,57	0,44
611,49	-432,61	0,44
612,48	-428,57	0,44
613,46	-425,12	0,44
614,45	-422,03	0,44
615,44	-417,63	0,44
616,43	-413,96	0,44
617,42	-410,4	0,44
618,40	-407,36	0,44
619,39	-404,13	0,44
620,38	-402,06	0,44
621,37	-399,66	0,44
622,37	-397,07	0,44
623,36	-393,7	0,44
624,34	-390,12	0,44
625,33	-386,49	0,44
626,32	-382,99	0,44
627,31	-379,13	0,44
628,29	-376,29	0,44
629,28	-373,31	0,44
630,27	-370,39	0,44
631,26	-367,1	0,44
632,25	-364,37	0,44
633,23	-361,52	0,44
634,22	-358,19	0,44
635,21	-355,02	0,44
636,20	-352,17	0,44
637,18	-349,86	0,44
638,17	-347,37	0,44
639,16	-345,59	0,44
640,15	-343,9	0,44
641,13	-342,07	0,44
642,13	-339,51	0,44
643,12	-337,04	0,44
644,12	-334,26	0,44
645,10	-330,94	0,44
646,09	-327,98	0,44
647,08	-325,59	0,44
648,07	-322,16	0,44
649,05	-319,58	0,44
650,04	-316,54	0,44
651,03	-312,82	0,44
652,02	-308,89	0,44
653,01	-305,03	0,44
654,00	-301,61	0,44
654,98	-298,89	0,44
655,97	-297	0,44
656,96	-295,11	0,44
657,95	-293,43	0,44
658,93	-290,73	0,44
659,92	-288,77	0,44
660,91	-286	0,44
661,90	-282,7	0,44
662,90	-280,29	0,44
663,89	-277,78	0,44
664,88	-274,37	0,44
665,86	-271,34	0,44
666,85	-268,78	0,44
667,84	-265,3	0,44
668,83	-262,77	0,44
669,82	-260,65	0,44
670,80	-258,62	0,44
671,79	-256,4	0,44
672,78	-254,86	0,44
673,77	-252,25	0,44
674,75	-249,67	0,44
675,74	-247,08	0,44
676,73	-245,09	0,44
677,72	-242,6	0,44
678,70	-239,53	0,44
679,69	-236,39	0,44
680,68	-233,49	0,44
681,67	-230,03	0,44
682,67	-227,61	0,44
683,66	-225,51	0,44
684,64	-223,12	0,44
685,63	-220,5	0,44
686,62	-218,14	0,44
687,61	-215,89	0,44
688,60	-213,62	0,44
689,58	-212,27	0,44
690,57	-209,99	0,44
691,56	-207,85	0,44
692,54	-205,17	0,44
693,53	-202,93	0,44
694,52	-199,83	0,44
695,51	-198,29	0,44
696,50	-196,61	0,44
697,48	-194,52	0,44
698,47	-193,57	0,44
699,46	-191,58	0,44
700,44	-189,83	0,44
701,43	-188,71	0,44
702,44	-187,15	0,44
703,42	-184,76	0,44
704,41	-184,47	0,44
705,40	-183,29	0,44
706,39	-181,29	0,44
707,37	-179,55	0,44
708,36	-177,85	0,44
709,35	-175,77	0,44
710,34	-173,53	0,44
711,33	-170,92	0,44
712,31	-168,71	0,44
713,30	-166,23	0,44
714,29	-163,1	0,44
715,28	-160,84	0,44
716,27	-158,76	0,44
717,25	-157,83	0,44
718,24	-157,05	0,44
719,23	-156,62	0,44
720,22	-155,14	0,44
721,20	-154,11	0,44
722,21	-152,15	0,44
723,20	-150,5	0,44
724,18	-148,35	0,44
725,17	-146,75	0,44
726,16	-144,9	0,44
727,15	-142,91	0,44
728,13	-140,87	0,44
729,12	-139,24	0,44
730,11	-137,38	0,44
731,10	-135,42	0,44
732,08	-134,11	0,44
733,07	-132,71	0,44
734,06	-131,45	0,44
735,04	-131,23	0,44
736,03	-131,35	0,44
737,02	-130,54	0,44
738,01	-129,19	0,44
739,00	-128,04	0,44
739,99	-125,95	0,44
740,97	-124,39	0,44
741,96	-122,98	0,44
742,97	-121,94	0,44
743,95	-119,87	0,44
744,94	-118,65	0,44
745,93	-117,52	0,44
746,92	-116,63	0,44
747,90	-115,95	0,44
748,89	-115,92	0,44
749,88	-115,03	0,44
750,87	-113,95	0,44
751,86	-112,87	0,44
752,84	-110,65	0,44
753,83	-109,68	0,44
754,82	-108,76	0,44
755,81	-107,11	0,44
756,79	-105,22	0,44
757,78	-104,8	0,44
758,77	-103,7	0,44
759,76	-103,14	0,44
760,75	-101,89	0,44
761,74	-101,58	0,44
762,74	-100,94	0,44
763,72	-100	0,44
764,71	-98,93	0,44
765,70	-98,55	0,44
766,69	-97,59	0,44
767,68	-96,31	0,44
768,66	-94,7	0,44
769,65	-93,18	0,44
770,64	-91,86	0,44
771,63	-91,07	0,44
772,62	-90,5	0,44
773,60	-90,11	0,44
774,59	-88,85	0,44
775,58	-87,66	0,44
776,56	-85,81	0,44
777,55	-84	0,44
778,54	-82,62	0,44
779,53	-81,8	0,44
780,51	-80,34	0,44
781,50	-79,73	0,44
782,51	-79,03	0,44
783,50	-78,39	0,44
784,48	-78,31	0,44
785,47	-79,15	0,44
786,46	-78,52	0,44
787,45	-77,91	0,44
788,43	-77,12	0,44
789,42	-75,9	0,44
790,41	-75,26	0,44
791,40	-75,44	0,44
792,39	-75,6	0,44
793,37	-75,29	0,44
794,36	-75,33	0,44
795,35	-74,58	0,44
796,34	-72,66	0,44
797,33	-71,36	0,44
798,32	-70,6	0,44
799,30	-69,57	0,44
800,29	-68,57	0,44
801,28	-67,96	0,44
802,28	-67,15	0,44
803,27	-66,26	0,44
804,26	-64,44	0,44
805,25	-63,08	0,44
806,24	-62,46	0,44
807,22	-61,5	0,44
808,21	-61,29	0,44
809,20	-61,19	0,44
810,19	-60,61	0,44
811,18	-59,89	0,44
812,16	-60,19	0,44
813,15	-58,66	0,44
814,14	-57,99	0,44
815,13	-57,28	0,44
816,12	-56,33	0,44
817,11	-54,12	0,44
818,10	-53,48	0,44
819,08	-52,61	0,44
820,07	-52,15	0,44
821,06	-51,42	0,44
822,06	-51,27	0,44
823,05	-50,21	0,44
824,03	-49,03	0,44
825,02	-47,48	0,44
826,01	-46,76	0,44
827,00	-45,96	0,44
827,99	-45,05	0,44
828,98	-44,27	0,44
829,96	-44,74	0,44
830,95	-44,37	0,44
831,94	-44,41	0,44
832,92	-44,59	0,44
833,91	-44,67	0,44
834,90	-43,7	0,44
835,89	-42,72	0,44
836,88	-40,92	0,44
837,87	-39,51	0,44
838,85	-38,19	0,44
839,84	-37,19	0,44
840,83	-36,09	0,44
841,82	-35,68	0,44
842,82	-35,25	0,44
843,81	-35,04	0,44
844,79	-34,31	0,44
845,78	-34,63	0,44
846,77	-34,1	0,44
847,76	-32,86	0,44
848,75	-32,1	0,44
849,73	-31,44	0,44
850,72	-29,87	0,44
851,71	-28,97	0,44
852,70	-28,15	0,44
853,69	-26,78	0,44
854,67	-25,55	0,44
855,66	-25,43	0,44
856,65	-24,77	0,44
857,64	-24,78	0,44
858,63	-23,89	0,44
859,61	-23,08	0,44
860,60	-23,04	0,44
861,59	-22,81	0,44
862,59	-22,12	0,44
863,58	-22,67	0,44
864,57	-22,05	0,44
865,56	-20,91	0,44
866,55	-20,3	0,44
867,53	-20,56	0,44
868,52	-20,48	0,44
869,51	-21,23	0,44
870,50	-21,49	0,44
871,49	-20,77	0,44
872,47	-19,25	0,44
873,46	-18,32	0,44
874,45	-17,88	0,44
875,44	-17,35	0,44
876,43	-17,46	0,44
877,41	-17,74	0,44
878,40	-17,12	0,44
879,39	-16,09	0,44
880,37	-15,66	0,44
881,36	-14,75	0,44
882,36	-14,24	0,44
883,35	-13,7	0,44
884,34	-13,15	0,44
885,33	-11,5	0,44
886,32	-10,67	0,44
887,30	-10,26	0,44
888,29	-9,68	0,44
889,28	-9,23	0,44
890,27	-9,2	0,44
891,25	-9,33	0,44
892,24	-8,25	0,44
893,23	-7,09	0,43
894,22	-7,1	0,44
895,21	-6,9	0,44
896,20	-6,74	0,43
897,18	-6,46	0,44
898,17	-7,33	0,44
899,16	-6,63	0,44
900,15	-6,8	0,44
901,14	-6,57	0,44
902,14	-6,59	0,43
903,13	-5,98	0,44
904,12	-5,28	0,43
905,11	-3,42	0,43
906,09	-2,02	0,44
907,08	-1,55	0,44
908,07	-1,48	0,44
909,06	-1,33	0,44
910,04	-1,94	0,44
911,03	-2,04	0,43
912,02	-1,05	0,43
913,01	-0,07	0,43
913,99	0,61	0,43
914,98	1,87	0,43
915,97	3,2	0,43
916,96	3,13	0,43
917,95	3,77	0,43
918,93	4,54	0,43
919,92	5,06	0,43
920,91	4,48	0,43
921,90	4,45	0,44
922,90	4,32	0,43
923,89	4,02	0,44
924,88	3,58	0,43
925,87	3,76	0,43
926,85	5,05	0,43
927,84	5,72	0,43
928,83	6,54	0,43
929,81	7,06	0,43
930,80	7,43	0,43
931,79	7,8	0,43
932,78	8,52	0,43
933,76	8,56	0,43
934,75	8,78	0,43
935,74	8,53	0,44
936,73	7,6	0,43
937,72	7,5	0,43
938,70	8,22	0,43
939,69	9,06	0,43
940,68	9,9	0,43
941,66	11,46	0,43
942,67	12,45	0,43
943,65	12,82	0,43
944,64	13,09	0,43
945,63	14,23	0,43
946,62	14,77	0,43
947,61	14,94	0,43
948,60	13,81	0,43
949,58	13,44	0,43
950,57	12,73	0,43
951,56	12,18	0,43
952,55	11,53	0,43
953,54	12,4	0,43
954,52	12,75	0,43
955,51	13,76	0,43
956,50	13,66	0,43
957,49	13,74	0,43
958,47	13,62	0,43
959,46	14,63	0,43
960,45	14,53	0,43
961,44	15,53	0,43
962,44	15,9	0,43
963,43	16,85	0,43
964,42	16,84	0,43
965,40	17,34	0,43
966,39	17,72	0,43
967,38	18,74	0,43
968,37	19,66	0,43
969,35	20,7	0,43
970,34	21,74	0,43
971,33	22,19	0,43
972,32	23,03	0,43
973,31	22,68	0,43
974,29	22,12	0,43
975,28	21,65	0,43
976,27	21,49	0,43
977,26	20,96	0,43
978,25	21,71	0,43
979,23	21,96	0,43
980,22	22,8	0,43
981,21	23,24	0,43
982,21	23,42	0,43
983,20	24,36	0,43
984,19	25,07	0,43
985,18	25,12	0,43
986,16	25,86	0,43
987,15	26,59	0,43
988,14	26,03	0,43
989,13	26,38	0,43
990,12	26,64	0,43
991,10	26,23	0,43
992,09	26,51	0,43
993,08	26,72	0,43
994,07	26,78	0,43
995,05	27,24	0,43
996,04	28,16	0,43
997,03	28,92	0,43
998,01	29,09	0,43
999,00	29,57	0,43
999,99	30,08	0,43
1000,98	30,26	0,43
1001,97	29,93	0,43
1002,97	30,47	0,43
1003,96	30,82	0,43
1004,95	31,26	0,43
1005,94	31,76	0,43
1006,93	33,36	0,43
1007,91	34,12	0,43
1008,90	33,89	0,43
1009,89	33,73	0,43
1010,88	34,63	0,43
1011,87	33,76	0,43
1012,85	33,28	0,43
1013,84	33,59	0,43
1014,83	33,36	0,43
1015,82	32,54	0,43
1016,80	33,06	0,43
1017,79	33,53	0,43
1018,78	34,6	0,43
1019,76	34,87	0,43
1020,75	35,06	0,43
1021,74	33,57	0,43
1022,73	33,51	0,43
1023,72	32,69	0,43
1024,70	32,49	0,43
1025,69	32,8	0,43
1026,68	34,82	0,43
1027,68	35,85	0,43
1028,67	36,98	0,43
1029,66	37,28	0,43
1030,65	37,34	0,43
1031,63	37,37	0,43
1032,62	36,3	0,43
1033,61	35,59	0,43
1034,60	36,13	0,43
1035,59	35,99	0,43
1036,57	35,54	0,43
1037,56	35,77	0,43
1038,55	36,2	0,43
1039,54	36,79	0,43
1040,53	37,3	0,43
1041,51	37,46	0,43
1042,50	37,93	0,43
1043,49	38,34	0,43
1044,48	38,41	0,43
1045,46	38,56	0,43
1046,45	38,89	0,43
1047,44	40,01	0,43
1048,43	39,94	0,43
1049,42	40,22	0,43
1050,40	40,43	0,43
1051,39	40,42	0,43
1052,39	39,39	0,43
1053,38	40,12	0,43
1054,37	39,91	0,43
1055,36	39,96	0,43
1056,35	39,72	0,43
1057,33	40,42	0,43
1058,32	39,63	0,43
1059,31	40,01	0,43
1060,30	40,7	0,43
1061,29	41,71	0,43
1062,27	41,2	0,43
1063,26	41,29	0,43
1064,25	41,4	0,43
1065,24	41,81	0,43
1066,23	42,02	0,43
1067,21	43,79	0,43
1068,20	45,06	0,43
1069,19	46,12	0,43
1070,18	46,22	0,43
1071,16	46,61	0,43
1072,15	46,88	0,43
1073,14	47,1	0,43
1074,13	46,22	0,43
1075,12	46,74	0,43
1076,11	47,35	0,43
1077,11	47,08	0,43
1078,10	47,54	0,43
1079,09	48,76	0,43
1080,08	48,52	0,43
1081,06	48,54	0,43
1082,05	49,33	0,43
1083,04	49,55	0,43
1084,03	50	0,43
1085,01	51,56	0,43
1086,00	52,26	0,43
1086,99	52,26	0,43
1087,97	52,82	0,43
1088,96	53,44	0,43
1089,95	53,59	0,43
1090,94	54,35	0,43
1091,93	55,28	0,43
1092,91	56,12	0,43
1093,90	55,85	0,43
1094,89	56,35	0,43
1095,88	56,19	0,43
1096,87	55,8	0,43
1097,86	54,61	0,43
1098,84	54,45	0,43
1099,83	53,37	0,43
1100,82	52,83	0,43
1101,81	53,19	0,43
1102,81	54,3	0,43
1103,80	54,84	0,43
1104,78	55,18	0,43
1105,77	56,04	0,43
1106,76	56,43	0,43
1107,75	56,19	0,43
1108,74	56,12	0,43
1109,72	56,17	0,43
1110,71	56,88	0,43
1111,70	57,13	0,43
1112,69	58,02	0,43
1113,68	58,47	0,43
1114,66	59,57	0,43
1115,65	59,92	0,43
1116,64	60,16	0,43
1117,63	59,4	0,43
1118,62	60,59	0,43
1119,61	60,34	0,43
1120,59	59,98	0,43
1121,58	60,05	0,43
1122,57	61,12	0,43
1123,56	60,36	0,43
1124,54	60,92	0,43
1125,53	61,84	0,43
1126,52	62,78	0,43
1127,52	63,15	0,43
1128,51	63,78	0,43
1129,50	64,47	0,43
1130,49	64,06	0,43
1131,47	63,78	0,43
1132,46	63,93	0,43
1133,45	63,6	0,43
1134,44	62,88	0,43
1136,37	62,73	0,43
1137,36	62,09	0,43
1138,34	61,88	0,43
1139,33	61,98	0,43
1140,32	61,53	0,43
1141,31	61,69	0,43
1142,29	61,39	0,43
1143,28	61,48	0,43
1144,27	61,11	0,43
1145,26	61,85	0,43
1146,24	62,61	0,43
1147,23	63,28	0,43
1148,22	63,36	0,43
1149,21	64,57	0,43
1150,19	64,47	0,43
1151,18	64,04	0,43
1152,18	64,52	0,43
1153,17	64,35	0,43
1154,16	64,53	0,43
1155,15	65,34	0,43
1156,14	65,82	0,43
1157,13	65,96	0,43
1158,12	66,26	0,43
1159,10	65,93	0,43
1160,09	66,02	0,43
1161,08	66,44	0,43
1162,07	65,99	0,43
1163,06	66,54	0,43
1164,04	66,35	0,43
1165,03	66,21	0,43
1166,02	65,7	0,43
1167,01	65,49	0,43
1167,99	65,67	0,43
1168,98	66,54	0,43
1169,97	66,78	0,43
1170,96	66,89	0,43
1171,94	68,67	0,43
1172,93	68,78	0,43
1173,92	68,88	0,43
1174,90	68,95	0,43
1175,89	69,64	0,43
1176,88	69,25	0,43
1177,87	69,75	0,43
1178,85	70,41	0,43
1179,84	71,11	0,43
1180,83	71,22	0,43
1181,82	71,13	0,43
1182,81	70,89	0,43
1183,80	71,11	0,43
1184,78	71,02	0,43
1185,77	71,34	0,43
1186,76	71,76	0,43
1187,74	71,68	0,43
1188,73	71,01	0,43
1189,72	71,28	0,43
1190,71	71,64	0,43
1191,70	71,15	0,43
1192,68	70,98	0,43
1193,67	71,46	0,43
1194,66	70,94	0,43
1195,65	71,12	0,43
1196,63	71,91	0,43
1197,62	73,04	0,43
1198,61	74,19	0,43
1199,60	74,96	0,43
1200,59	75,46	0,43
1201,58	75,58	0,43
1202,58	75,6	0,43
1203,57	75,06	0,43
1204,55	75,32	0,43
1205,54	73,71	0,43
1206,53	73,85	0,43
1207,52	72,83	0,43
1208,51	72,3	0,43
1209,49	72,74	0,43
1210,48	74,32	0,43
1211,47	74,84	0,43
1212,46	76,71	0,43
1213,44	77,64	0,43
1214,43	77,55	0,43
1215,42	77,13	0,43
1216,41	76,19	0,43
1217,39	75,14	0,43
1218,38	74,08	0,43
1219,37	74,11	0,43
1220,36	74,18	0,43
1221,34	74,83	0,43
1222,33	75,01	0,43
1223,32	76,22	0,43
1224,31	75,84	0,43
1225,29	76	0,43
1226,28	76,08	0,43
1227,27	76,16	0,43
1228,26	75,89	0,43
1229,24	75,32	0,43
1230,23	74,33	0,43
1231,22	73,76	0,43
1232,21	74,09	0,43
1233,19	73,26	0,43
1234,18	74,21	0,43
1235,17	75,27	0,43
1236,16	76,12	0,43
1237,14	76,5	0,43
1238,13	77,38	0,43
1239,12	77,56	0,43
1240,11	77,32	0,43
1241,10	77	0,43
1242,08	76,29	0,43
1243,07	76,38	0,43
1244,06	76,44	0,43
1245,05	77,01	0,43
1246,04	78,14	0,43
1247,02	79	0,43
1248,01	79,71	0,43
1249,00	80,08	0,43
1249,99	80,41	0,43
1250,97	80,26	0,43
1251,96	80,83	0,43
1252,96	80,68	0,43
1253,95	80,47	0,43
1254,94	80,81	0,43
1255,93	81,71	0,43
1256,92	81,6	0,43
1257,90	82,54	0,43
1258,89	83,59	0,43
1259,88	83,68	0,43
1260,87	82,89	0,43
1261,86	83,25	0,43
1262,84	82,95	0,43
1263,83	83,3	0,43
1264,82	84,37	0,43
1265,81	86,13	0,43
1266,79	86,93	0,43
1267,78	87,54	0,43
1268,77	87,77	0,43
1269,76	87,13	0,43
1270,75	85,68	0,43
1271,73	85,96	0,43
1272,72	85,58	0,43
1273,71	85,3	0,43
1274,69	85,26	0,43
1275,68	86,32	0,43
1276,67	86,13	0,43
1277,66	86,62	0,43
1278,65	87,08	0,43
1279,63	87,82	0,43
1280,62	87,44	0,43
1281,61	87,91	0,43
1282,60	88,24	0,43
1283,58	87,8	0,43
1284,57	87,35	0,43
1285,56	88,05	0,43
1286,55	87,57	0,43
1287,53	87,61	0,43
1288,52	86,98	0,43
1289,51	87,17	0,43
1290,50	86,47	0,43
1291,48	85,88	0,43
1292,47	85,51	0,43
1293,46	86,07	0,43
1294,45	86,48	0,43
1295,43	86,66	0,43
1296,42	87,29	0,43
1297,41	86,76	0,43
1298,40	86,69	0,43
1299,39	86,1	0,43
1300,37	86,21	0,43
1301,36	86,1	0,43
1302,36	87,56	0,43
1303,35	88,75	0,43
1304,34	88,96	0,43
1305,33	89,02	0,43
1306,32	89,1	0,43
1307,30	88,93	0,43
1308,29	88,56	0,43
1309,28	89	0,43
1310,27	89,84	0,43
1311,26	91,02	0,43
1312,24	90,64	0,43
1313,23	90,3	0,43
1314,22	89,98	0,43
1315,20	89,69	0,43
1316,19	88,69	0,43
1317,18	88,59	0,43
1318,17	88,89	0,43
1319,16	89,36	0,43
1320,14	88,74	0,43
1321,13	88,43	0,43
1322,12	88,16	0,43
1323,11	88,11	0,43
1324,09	88,86	0,43
1325,08	88,92	0,43
1326,07	89,73	0,43
1327,06	89,52	0,43
1328,05	89,86	0,43
1329,04	88,63	0,43
1330,02	88,86	0,43
1331,01	88,76	0,43
1331,99	89,52	0,43
1332,98	89,34	0,43
1333,97	89,68	0,43
1334,96	90,41	0,43
1335,95	90,08	0,43
1336,94	90,41	0,43
1337,92	91,02	0,43
1338,91	91,78	0,43
1339,90	92,09	0,43
1340,89	92,85	0,43
1341,88	92,65	0,43
1342,86	92,47	0,43
1343,85	92,22	0,43
1344,84	91,93	0,43
1345,83	91,76	0,43
1346,81	92,75	0,43
1347,80	93,94	0,43
1348,79	94,29	0,43
1349,78	94,99	0,43
1350,77	95,86	0,43
1351,75	95,42	0,43
1352,75	94,36	0,43
1353,74	94,76	0,43
1354,73	94,6	0,43
1355,72	94,08	0,43
1356,71	94,08	0,43
1357,69	93,8	0,43
1358,68	93,87	0,43
1359,67	94,05	0,43
1360,66	94,46	0,43
1361,65	94,95	0,43
1362,63	95,74	0,43
1363,62	95,36	0,43
1364,61	94,59	0,43
1365,60	94,66	0,43
1366,59	93,97	0,43
1367,57	93,16	0,43
1368,56	93,36	0,43
1369,55	93,62	0,43
1370,54	92,96	0,43
1371,53	93,57	0,43
1372,51	93,75	0,43
1373,50	94,48	0,43
1374,49	95,52	0,43
1375,48	95,71	0,43
1376,46	95,83	0,43
1377,45	97,74	0,43
1378,44	97,69	0,43
1379,43	97,55	0,43
1380,42	98,6	0,43
1381,40	98,97	0,43
1382,39	98,29	0,43
1383,38	98,21	0,43
1384,37	98,4	0,43
1385,36	98,34	0,43
1386,34	98,73	0,43
1387,33	98,81	0,43
1388,32	99,29	0,43
1389,31	99,71	0,43
1390,30	99,52	0,43
1391,28	99,39	0,43
1392,27	99,78	0,43
1393,26	99,72	0,43
1394,24	99,21	0,43
1395,23	99,63	0,43
1396,22	99,56	0,43
1397,21	98,91	0,43
1398,20	99,12	0,43
1399,18	98,7	0,43
1400,17	98,64	0,43
1401,16	98,48	0,43
1402,16	99,17	0,43
1403,15	98,41	0,43
1404,14	98,64	0,43
1405,13	98,28	0,43
1406,12	98,33	0,43
1407,11	98,26	0,43
1408,09	98,01	0,43
1409,08	97,35	0,43
1410,07	97,18	0,43
1411,06	97,23	0,43
1412,04	96,49	0,43
1413,03	96,92	0,43
1414,02	97,77	0,43
1415,01	98,42	0,43
1416,00	98,72	0,43
1416,98	99,19	0,43
1417,97	99,61	0,43
1418,96	99,78	0,43
1419,94	99,72	0,43
1420,93	100,52	0,43
1421,92	101,2	0,43
1422,91	101,73	0,43
1423,90	102,09	0,43
1424,89	102,99	0,43
1425,88	101,8	0,43
1426,86	101,54	0,43
1427,85	101,25	0,43
1428,84	100,74	0,43
1429,83	100,23	0,43
1430,82	100,64	0,43
1431,81	101,11	0,43
1432,79	101,49	0,43
1433,78	102,53	0,43
1434,77	102,88	0,43
1435,76	103,88	0,43
1436,74	104,5	0,43
1437,73	105,76	0,43
1438,72	105,84	0,43
1439,71	105,7	0,43
1440,70	105,89	0,43
1441,69	105,06	0,43
1442,67	104,6	0,43
1443,66	104,93	0,43
1444,65	105,67	0,43
1445,64	105,27	0,43
1446,63	105,51	0,43
1447,61	104,82	0,43
1448,60	104,1	0,43
1449,59	103,75	0,43
1450,58	104,23	0,43
1451,56	104,84	0,43
1452,57	105,94	0,43
1453,55	107,23	0,43
1454,54	107,4	0,43
1455,53	107,46	0,43
1456,52	107,79	0,43
1457,51	107,98	0,43
1458,49	108,2	0,43
1459,48	109,3	0,43
1460,47	110,04	0,43
1461,46	110,5	0,43
1462,45	110,61	0,43
1463,43	111,06	0,43
1464,42	111,3	0,43
1465,41	111,56	0,43
1466,40	111,52	0,43
1467,39	111,07	0,43
1468,37	110,26	0,43
1469,36	109,48	0,43
1470,35	109,01	0,43
1471,34	108,67	0,43
1472,33	108,76	0,43
1473,31	108,75	0,43
1474,30	108,15	0,43
1475,29	107,86	0,43
1476,27	107,45	0,43
1477,26	107,28	0,43
1478,25	107,43	0,43
1479,24	107,09	0,43
1480,23	106,31	0,43
1481,21	106,51	0,43
1482,20	106,45	0,43
1483,19	106,71	0,43
1484,18	107,45	0,43
1485,16	107,93	0,43
1486,15	107,92	0,43
1487,14	108,13	0,43
1488,13	108,5	0,43
1489,12	108,98	0,43
1490,11	109,86	0,43
1491,10	110,46	0,43
1492,08	110,6	0,43
1493,07	110,7	0,43
1494,06	111,24	0,43
1495,05	110,85	0,43
1496,03	110,57	0,43
1497,02	110,89	0,43
1498,01	110,45	0,43
1499,00	110,6	0,43
1499,99	112,08	0,43
1500,97	113,27	0,43
1501,96	113,2	0,43
1502,96	113,66	0,43
1503,95	113,53	0,43
1504,94	111,92	0,43
1505,93	111,31	0,43
1506,92	111,22	0,43
1507,90	111,35	0,43
1508,89	111,67	0,43
1509,88	113,57	0,43
1510,87	114,27	0,43
1511,86	114,72	0,43
1512,85	114,1	0,43
1513,83	114,04	0,43
1514,82	113,53	0,43
1515,81	113,15	0,43
1516,80	112,91	0,43
1517,79	113,37	0,43
1518,78	113,45	0,43
1519,76	113,07	0,43
1520,75	113,75	0,43
1521,74	114,27	0,43
1522,73	114,17	0,43
1523,71	113,07	0,43
1524,70	111,68	0,43
1525,69	110,95	0,43
1526,68	110,51	0,43
1527,67	110,96	0,43
1528,65	111,14	0,43
1529,64	112,67	0,43
1530,63	112,53	0,43
1531,62	113,22	0,43
1532,61	112,87	0,43
1533,59	113,65	0,43
1534,58	113,1	0,43
1535,57	113,26	0,43
1536,55	113,28	0,43
1537,54	113,6	0,43
1538,53	113,52	0,43
1539,52	113,6	0,43
1540,51	114,17	0,43
1541,49	114	0,43
1542,48	114,6	0,43
1543,47	115,19	0,43
1544,46	116,36	0,43
1545,45	116,43	0,43
1546,44	115,8	0,43
1547,42	115,29	0,43
1548,41	115,83	0,43
1549,40	116,05	0,43
1550,39	116,02	0,43
1551,38	117,27	0,43
1552,38	118,05	0,43
1553,37	118,1	0,43
1554,36	117,85	0,43
1555,35	117,82	0,43
1556,33	116,79	0,43
1557,32	115,82	0,43
1558,31	114,77	0,43
1559,30	114,19	0,43
1560,28	113,87	0,43
1561,27	114,66	0,43
1562,26	115,37	0,43
1563,25	116,64	0,43
1564,23	116,5	0,43
1565,22	116,74	0,43
1566,21	116,94	0,43
1567,20	117,54	0,43
1568,18	116,67	0,43
1569,17	117,02	0,43
1570,16	116,6	0,43
1571,15	116,48	0,43
1572,14	116	0,43
1573,12	115,74	0,43
1574,11	115,88	0,43
1575,10	116,26	0,43
1576,09	115,81	0,43
1577,08	115,77	0,43
1578,07	115,71	0,43
1579,06	115,2	0,43
1580,04	115,77	0,43
1581,03	116,33	0,43
1582,02	115,99	0,43
1583,01	116,27	0,43
1583,99	116,26	0,43
1584,98	115,61	0,43
1585,97	114,47	0,43
1586,96	114,15	0,43
1587,95	113,82	0,43
1588,94	114,31	0,43
1589,92	114,65	0,43
1590,91	114,76	0,43
1591,90	114,97	0,43
1592,89	114,65	0,43
1593,87	114,39	0,43
1594,86	114,02	0,43
1595,85	114,41	0,43
1596,84	114,33	0,43
1597,82	115,11	0,43
1598,81	115,79	0,43
1599,80	115,86	0,43
1600,79	116,75	0,43
1601,77	117,4	0,43
1602,78	118,82	0,43
1603,77	119,45	0,43
1604,75	120,45	0,43
1605,74	119,7	0,43
1606,73	119,69	0,43
1607,72	118,41	0,43
1608,70	117,65	0,43
1609,69	117,33	0,43
1610,68	118,52	0,43
1611,67	118,31	0,43
1612,66	118,24	0,43
1613,65	118,46	0,43
1614,63	118,63	0,43
1615,62	117,34	0,43
1616,61	117,9	0,43
1617,60	118,2	0,43
1618,59	118,21	0,43
1619,58	118,21	0,43
1620,57	119,53	0,43
1621,55	119,3	0,43
1622,54	119,25	0,43
1623,53	119,78	0,43
1624,52	120,39	0,43
1625,50	120,83	0,43
1626,49	121,44	0,43
1627,48	122,28	0,43
1628,47	122,02	0,43
1629,46	121,17	0,43
1630,44	119,59	0,43
1631,43	118,81	0,43
1632,42	117,73	0,43
1633,41	117,65	0,43
1634,40	117,81	0,43
1635,39	118,97	0,43
1636,37	119,8	0,43
1637,36	120,37	0,43
1638,35	119,83	0,43
1639,34	119,71	0,43
1640,33	118,99	0,43
1641,31	118,15	0,43
1642,30	115,49	0,44
1643,29	111,22	0,44
1644,28	106,61	0,44
1645,26	101,37	0,44
1646,25	93,56	0,44
1647,24	86,21	0,44
1648,23	80,33	0,44
1649,21	71,28	0,44
1650,20	61,91	0,44
1651,19	54,17	0,44
1652,19	45,37	0,44
1653,18	34,45	0,44
1654,17	25,88	0,44
1655,15	15,97	0,44
1656,14	4,93	0,44
1657,13	-4,38	0,44
1658,12	-16,79	0,44
1659,11	-31,24	0,44
1660,10	-43,82	0,44
1661,08	-60,96	0,44
1662,07	-78,79	0,44
1663,06	-92,1	0,44
1664,05	-110,23	0,45
1665,04	-130,1	0,45
1666,02	-144,67	0,45
1667,01	-165,06	0,45
1668,00	-182,71	0,45
1668,99	-192,17	0,45
1669,97	-203,3	0,45
1670,96	-211,76	0,45
1671,95	-212,39	0,45
1672,94	-215,48	0,45
1673,93	-215,79	0,45
1674,91	-208,07	0,45
1675,90	-200,03	0,45
1676,89	-188,2	0,45
1677,88	-171,04	0,45
1678,87	-153,22	0,44
1679,85	-136,12	0,44
1680,84	-116,79	0,44
1681,83	-98,5	0,44
1682,82	-80,39	0,44
1683,81	-61,46	0,44
1684,80	-42,52	0,44
1685,78	-24,93	0,44
1686,77	-7,18	0,44
1687,76	8,91	0,44
1688,75	23,26	0,44
1689,73	37,42	0,44
1690,72	51,11	0,44
1691,71	62,71	0,44
1692,70	74,8	0,44
1693,69	85,48	0,44
1694,68	94,94	0,44
1695,66	104,31	0,44
1696,65	114,34	0,44
1697,64	122,97	0,44
1698,63	131,71	0,44
1699,62	139,75	0,44
1700,60	146,86	0,44
1701,59	153,94	0,44
1702,59	161,46	0,44
1703,58	168,64	0,44
1704,57	176,57	0,44
1705,56	184,61	0,44
1706,55	192,73	0,44
1707,54	200,06	0,44
1708,52	206,63	0,44
1709,51	213	0,44
1710,50	220,46	0,44
1711,49	227,86	0,44
1712,48	235,09	0,44
1713,46	243,22	0,44
1714,45	250,58	0,44
1715,44	256,73	0,44
1716,43	262,86	0,44
1717,42	268,86	0,44
1718,40	274,14	0,44
1719,39	279,02	0,44
1720,38	283,47	0,44
1721,37	287,54	0,44
1722,36	291,48	0,44
1723,34	295,86	0,44
1724,33	300,27	0,44
1725,32	305,23	0,44
1726,31	309,22	0,44
1727,30	313,08	0,44
1728,28	316,96	0,44
1729,27	320,57	0,44
1730,26	324,12	0,44
1731,25	328,4	0,44
1732,23	331,83	0,44
1733,22	334,44	0,44
1734,21	337,89	0,44
1735,20	340,37	0,44
1736,19	343,03	0,44
1737,18	346,58	0,44
1738,16	349,9	0,44
1739,15	352,52	0,44
1740,14	355,77	0,44
1741,13	357,8	0,44
1742,11	360,11	0,44
1743,10	363	0,44
1744,09	365,05	0,44
1745,08	366,85	0,44
1746,07	368,48	0,44
1747,05	369,76	0,44
1748,04	371,48	0,44
1749,03	372,82	0,44
1750,02	374,34	0,44
1751,00	375,53	0,44
1752,01	377,15	0,44
1752,99	378,19	0,44
1753,98	380,08	0,44
1754,97	381,87	0,44
1755,95	383,84	0,44
1756,94	385,03	0,44
1757,93	386,2	0,44
1758,92	387,04	0,44
1759,91	387,43	0,44
1760,90	389,3	0,44
1761,89	390,39	0,44
1762,87	391,82	0,44
1763,86	392,86	0,44
1764,85	393,66	0,44
1765,84	393,41	0,44
1766,83	394,05	0,44
1767,81	394,09	0,44
1768,80	394,38	0,44
1769,79	395,58	0,44
1770,78	397,23	0,44
1771,77	399,07	0,44
1772,75	400,11	0,44
1773,74	401,86	0,44
1774,74	402,38	0,44
1775,73	402,1	0,44
1776,72	401,76	0,44
1777,71	402,17	0,44
1778,70	403,15	0,44
1779,69	404,23	0,44
1780,68	404,96	0,44
1781,66	405,72	0,44
1782,65	406,62	0,44
1783,64	406,75	0,44
1784,63	407,27	0,44
1785,61	408,37	0,44
1786,60	409,16	0,44
1787,59	409,9	0,44
1788,58	410,96	0,44
1789,57	411,51	0,44
1790,55	412,46	0,44
1791,54	413,3	0,44
1792,53	414,18	0,44
1793,52	414,24	0,44
1794,51	415,08	0,44
1795,49	415,91	0,44
1796,48	415,92	0,44
1797,47	415,93	0,44
1798,46	416,62	0,44
1799,44	416,62	0,44
1800,43	415,44	0,44
